VERSION:    3.1
ELEMENTS:   1
DATE:       
CHANNELS:   4096
REAL_TIME:  68.811041
LIVE_TIME:  68.811041
CAL_OFFSET: 0.000000e+00
CAL_SLOPE:  1.000000e-02
CAL_QUAD:   0.000000e+00
ROIS:      30
ROI_0_LEFT:  10
ROI_0_RIGHT:  4090
ROI_0_LABEL: OutputCounts &
ROI_1_LEFT:  152
ROI_1_RIGHT:  190
ROI_1_LABEL: Si Ka &
ROI_2_LEFT:  190
ROI_2_RIGHT:  214
ROI_2_LABEL: P Ka &
ROI_3_LEFT:  217
ROI_3_RIGHT:  241
ROI_3_LABEL: S Ka &
ROI_4_LEFT:  247
ROI_4_RIGHT:  276
ROI_4_LABEL: Cl Ka &
ROI_5_LEFT:  311
ROI_5_RIGHT:  349
ROI_5_LABEL: K Ka &
ROI_6_LEFT:  346
ROI_6_RIGHT:  388
ROI_6_LABEL: Ca Ka &
ROI_7_LEFT:  430
ROI_7_RIGHT:  472
ROI_7_LABEL: Ti Ka &
ROI_8_LEFT:  468
ROI_8_RIGHT:  519
ROI_8_LABEL: V Ka &
ROI_9_LEFT:  520
ROI_9_RIGHT:  565
ROI_9_LABEL: Cr Ka &
ROI_10_LEFT:  567
ROI_10_RIGHT:  609
ROI_10_LABEL: Mn Ka &
ROI_11_LEFT:  610
ROI_11_RIGHT:  672
ROI_11_LABEL: Fe Ka &
ROI_12_LEFT:  686
ROI_12_RIGHT:  725
ROI_12_LABEL: Fe Kb &
ROI_13_LEFT:  728
ROI_13_RIGHT:  773
ROI_13_LABEL: Ni Ka &
ROI_14_LEFT:  778
ROI_14_RIGHT:  829
ROI_14_LABEL: Cu Ka &
ROI_15_LEFT:  830
ROI_15_RIGHT:  891
ROI_15_LABEL: Zn Ka &
ROI_16_LEFT:  938
ROI_16_RIGHT:  1006
ROI_16_LABEL: Au La1 &
ROI_17_LEFT:  979
ROI_17_RIGHT:  1022
ROI_17_LABEL: Hg La &
ROI_18_LEFT:  997
ROI_18_RIGHT:  1109
ROI_18_LABEL: Pb La1 &
ROI_19_LEFT:  1021
ROI_19_RIGHT:  1089
ROI_19_LABEL: As Ka &
ROI_20_LEFT:  1028
ROI_20_RIGHT:  1185
ROI_20_LABEL: Se Ka &
ROI_21_LEFT:  1115
ROI_21_RIGHT:  1171
ROI_21_LABEL: Au Lb1 &
ROI_22_LEFT:  1145
ROI_22_RIGHT:  1209
ROI_22_LABEL: As Kb &
ROI_23_LEFT:  1150
ROI_23_RIGHT:  1223
ROI_23_LABEL: Br Ka &
ROI_24_LEFT:  1232
ROI_24_RIGHT:  1288
ROI_24_LABEL: Pb Lb1 &
ROI_25_LEFT:  1307
ROI_25_RIGHT:  1364
ROI_25_LABEL: Rb Ka &
ROI_26_LEFT:  1330
ROI_26_RIGHT:  1386
ROI_26_LABEL: U La1 &
ROI_27_LEFT:  1383
ROI_27_RIGHT:  1444
ROI_27_LABEL: Sr Ka &
ROI_28_LEFT:  1464
ROI_28_RIGHT:  1526
ROI_28_LABEL: Y Ka &
ROI_29_LEFT:  1527
ROI_29_RIGHT:  1628
ROI_29_LABEL: Zr Ka &
ENVIRONMENT: 13IDA:m5.VAL="0.5000" (Beamline.FOE_Slit_HPos)
ENVIRONMENT: 13IDA:m6.VAL="0.8000" (Beamline.FOE_Slit_HWid)
ENVIRONMENT: 13IDA:m7.VAL="-0.2001" (Beamline.FOE_Slit_VPos)
ENVIRONMENT: 13IDA:m8.VAL="0.3001" (Beamline.FOE_Slit_VWid)
ENVIRONMENT: 13XRM:ION:FluxOut.VAL="7.989e+10" (Beamline.FluxEstimate)
ENVIRONMENT: 13IDE:A1sens_num.VAL="5" (Beamline.I0_Sensitivity_Number)
ENVIRONMENT: 13IDE:A1sens_unit.VAL="nA/V" (Beamline.I0_Sensitivity_Unit)
ENVIRONMENT: 13IDE:A2sens_num.VAL="50" (Beamline.I1_Sensitivity_Number)
ENVIRONMENT: 13IDE:A2sens_unit.VAL="nA/V" (Beamline.I1_Sensitivity_Unit)
ENVIRONMENT: 13IDE:A3sens_num.VAL="200" (Beamline.I2_Sensitivity_Number)
ENVIRONMENT: 13IDE:A3sens_unit.VAL="uA/V" (Beamline.I2_Sensitivity_Unit)
ENVIRONMENT: 13IDA:m69.VAL="-0.0090" (Beamline.SSA_Slit_HPos)
ENVIRONMENT: 13IDA:m70.VAL="0.0500" (Beamline.SSA_Slit_HWid)
ENVIRONMENT: 13IDA:m71.VAL="1.1510" (Beamline.SSA_Slit_VPos)
ENVIRONMENT: 13IDA:m72.VAL="0.3500" (Beamline.SSA_Slit_VWid)
ENVIRONMENT: 13IDE:m34.VAL="2200.0" (DetectorStage.X)
ENVIRONMENT: 13IDE:m4.VAL="83.873" (DetectorStage.Y)
ENVIRONMENT: 13IDE:m19.VAL="33.0000" (DetectorStage.Z)
ENVIRONMENT: S:SRcurrentAI.VAL="101.8" (Facility.Ring_Current)
ENVIRONMENT: S:SRlifeTimeHrsCC.VAL="12.3" (Facility.Ring_Lifetime)
ENVIRONMENT: 13IDE:En:dspace.VAL="3.13477" (Mono.dspacing)
ENVIRONMENT: 13IDE:En:height.VAL="26.00000" (Mono.height)
ENVIRONMENT: 13IDA:m65.OFF="17.54848" (Mono.theta_offset)
ENVIRONMENT: 13IDA:m67.VAL="-0.1200" (Mono.xtal2_pitch)
ENVIRONMENT: 13IDA:m68.VAL="1.0200" (Mono.xtal2_rol)
ENVIRONMENT: 13IDA:m66.VAL="13.1802" (Mono.xtal2_y)
ENVIRONMENT: 13IDA:m66.OFF="11.6000" (Mono.xtal2_y_off)
ENVIRONMENT: 13XRM:m4.VAL="62.0140" (SampleStage.CoarseX)
ENVIRONMENT: 13XRM:m5.VAL="-50.6710" (SampleStage.CoarseY)
ENVIRONMENT: 13XRM:m6.VAL="261.3400" (SampleStage.CoarseZ)
ENVIRONMENT: 13XRM:m1.VAL="-0.21000" (SampleStage.FineX)
ENVIRONMENT: 13XRM:m2.VAL="0.01000" (SampleStage.FineY)
ENVIRONMENT: 13XRM:m3.VAL="-12.8355" (SampleStage.Theta)
ENVIRONMENT: ID13us:Energy.VAL="12.123" (Undulator.Energy)
ENVIRONMENT: 13IDE:En:Energy.VAL="12000.00000" (Mono.Energy)
DATA: 
 529.004
 524.837
 462.308
 436.55
 413.085
 365.542
 304.109
 236.121
 229.064
 174.608
 179.701
 126.199
 144.677
 99.5014
 84.093
 81.0295
 83.0167
 83.8985
 71.7267
 76.8438
 92.1466
 57.3491
 70.5906
 57.3114
 61.3541
 58.2995
 47.0777
 38.8885
 49.0973
 36.8488
 33.7225
 40.8955
 32.7169
 48.0493
 40.8552
 44.0089
 37.8548
 35.7968
 24.5722
 28.6495
 27.6962
 35.7683
 26.5903
 23.5462
 40.9674
 29.6409
 30.7226
 34.865
 24.6656
 39.9959
 24.6082
 26.6606
 28.675
 34.9151
 37.9539
 42.0871
 27.6736
 38.0182
 41.0976
 32.8268
 48.275
 46.2769
 39.0018
 51.4774
 51.4184
 59.6206
 66.839
 62.7183
 73.0745
 67.9094
 88.3945
 73.0171
 74.0497
 90.6079
 85.2689
 106.954
 102.004
 108.029
 127.673
 129.614
 133.791
 145.12
 145.075
 135.936
 125.583
 136.749
 157.454
 171.832
 167.663
 181.06
 188.292
 199.44
 177.968
 172.588
 203.83
 183.895
 219.043
 193.517
 211.776
 237.449
 237.346
 188.061
 254.717
 267.086
 248.523
 236.189
 272.211
 287.566
 301.775
 311.086
 307.824
 324.254
 342.742
 379.582
 375.223
 384.739
 411.229
 432.823
 494.374
 471.781
 473.847
 501.524
 589.585
 556.917
 555.624
 665.471
 675.857
 742.002
 718.4
 814.243
 829.438
 898.184
 906.154
 975.28
 1082.81
 1144.98
 1240.6
 1238.55
 1365.71
 1462.33
 1618.14
 1777.99
 1886.33
 2023.09
 2358.55
 2671.7
 2980.15
 3410.55
 3805.99
 4280.08
 5080.03
 5648.04
 6317.03
 6935.0
 7448.39
 7824.46
 8020.53
 8264.9
 8222.86
 7963.21
 7692.47
 7374.51
 6798.02
 6388.78
 6074.36
 5508.83
 5256.13
 4955.1
 4957.15
 4705.34
 4769.74
 4910.11
 4950.83
 5054.04
 5384.79
 5602.02
 5785.95
 6077.51
 6353.44
 6715.56
 7199.62
 7505.62
 7904.52
 8511.93
 9156.66
 9565.47
 10337.7
 11036.5
 11820.8
 12547.0
 13135.8
 13987.1
 14988.1
 15252.3
 15977.4
 16130.2
 16336.4
 16233.1
 16070.9
 15574.1
 15451.5
 14852.6
 14352.5
 13591.9
 13315.8
 12914.3
 12458.1
 11880.3
 11743.9
 11729.6
 11416.2
 11775.5
 12065.3
 12233.1
 13023.9
 13659.4
 14727.2
 16363.9
 18087.0
 20321.6
 22935.3
 26636.3
 30331.7
 34826.1
 39642.0
 44647.8
 49264.2
 53625.3
 57239.0
 59205.0
 60142.6
 59942.9
 58404.6
 54742.4
 51571.9
 47801.3
 43215.1
 38482.5
 34882.8
 31289.9
 28632.1
 26864.4
 24917.8
 23423.9
 22732.8
 22563.3
 21647.5
 21516.0
 21298.0
 20879.8
 21130.9
 21336.4
 21242.6
 21833.1
 22631.8
 23698.5
 24744.5
 25626.2
 26548.6
 27456.5
 28648.9
 28517.0
 28725.5
 28381.3
 27942.8
 27020.6
 25756.0
 24585.2
 23189.8
 21908.9
 21099.8
 19907.0
 19659.8
 18960.9
 18804.6
 18709.6
 18613.8
 18756.0
 19109.0
 19290.5
 19352.2
 19940.0
 20166.9
 20621.7
 20994.0
 21539.3
 22247.7
 22704.0
 23524.9
 24293.5
 24946.5
 25749.9
 26466.5
 27407.7
 28294.4
 29053.2
 29505.8
 29770.3
 30707.3
 30972.8
 31709.8
 32241.8
 33143.6
 34697.2
 36083.8
 37873.2
 40195.2
 43330.9
 46950.3
 51305.7
 57287.1
 65445.0
 74949.3
 87851.6
 102940.0
 124860.0
 151579.0
 187477.0
 231821.0
 288572.0
 357931.0
 439839.0
 536592.0
 644714.0
 760442.0
 884229.0
 1.00339e+06
 1.11293e+06
 1.20566e+06
 1.27546e+06
 1.3179e+06
 1.32731e+06
 1.30572e+06
 1.25403e+06
 1.17365e+06
 1.07487e+06
 961853.0
 845686.0
 727431.0
 617301.0
 516298.0
 428702.0
 355210.0
 296697.0
 250190.0
 217725.0
 196568.0
 183367.0
 180115.0
 184624.0
 195549.0
 211520.0
 234950.0
 262063.0
 295055.0
 333373.0
 376297.0
 422698.0
 475130.0
 532160.0
 593706.0
 656694.0
 722279.0
 786633.0
 844225.0
 896585.0
 933473.0
 955055.0
 963451.0
 948327.0
 914623.0
 865994.0
 800230.0
 728065.0
 647311.0
 565380.0
 485908.0
 409184.0
 340702.0
 281758.0
 230833.0
 189692.0
 155120.0
 130057.0
 109644.0
 95266.0
 85321.1
 79675.1
 77203.0
 77736.2
 80353.1
 84864.1
 91819.9
 99478.9
 109783.0
 118751.0
 129101.0
 136503.0
 143816.0
 149310.0
 151079.0
 150628.0
 148445.0
 142417.0
 134759.0
 124460.0
 113800.0
 102133.0
 89955.9
 78278.8
 68021.8
 58042.5
 49792.6
 42417.2
 36313.9
 31565.6
 27614.2
 24437.6
 22127.7
 19847.1
 18238.8
 16949.5
 15837.1
 14985.8
 14477.3
 14184.7
 13482.6
 13141.9
 12544.0
 12089.2
 12099.9
 11757.8
 11437.4
 11280.4
 11122.4
 10716.5
 10723.5
 10588.8
 10557.5
 10377.9
 10045.1
 10014.4
 9978.96
 9990.97
 9823.58
 9689.45
 9449.12
 9608.74
 9162.78
 9183.11
 9150.13
 9055.12
 8872.18
 8918.32
 8968.51
 8911.26
 8824.44
 8935.38
 8951.98
 8946.62
 9124.11
 8866.49
 9005.1
 8953.74
 9049.22
 8933.83
 8646.44
 8529.19
 8297.04
 8093.64
 8109.63
 7885.11
 7678.29
 7447.36
 7279.93
 7130.03
 7122.19
 6963.46
 6892.25
 6834.37
 6809.54
 6447.08
 6426.83
 6327.33
 6208.55
 6219.5
 6031.11
 6012.81
 5956.22
 5730.67
 5702.12
 5660.69
 5526.73
 5455.05
 5368.79
 5188.9
 5127.83
 4989.79
 4993.37
 4818.72
 4715.45
 4831.92
 4686.15
 4746.84
 4610.8
 4684.62
 4599.32
 4462.86
 4555.8
 4599.14
 4491.14
 4464.44
 4386.19
 4443.76
 4345.51
 4345.79
 4445.09
 4264.37
 4279.16
 4186.63
 4276.58
 4326.48
 4082.73
 4007.62
 4169.29
 4125.03
 4110.6
 4054.06
 3855.29
 4028.31
 3940.02
 3873.6
 3823.25
 3844.97
 3734.34
 3621.58
 3654.05
 3568.36
 3625.69
 3624.01
 3555.46
 3542.29
 3525.34
 3451.29
 3493.86
 3586.16
 3691.22
 3517.03
 3523.98
 3626.53
 3708.23
 3719.41
 3828.08
 3673.57
 3914.39
 3993.19
 3997.6
 3958.06
 4017.28
 4171.03
 4183.52
 4155.75
 4113.11
 4266.93
 4275.54
 4381.4
 4528.65
 4586.95
 4674.51
 5154.84
 5235.69
 5804.28
 6496.26
 7056.46
 8109.6
 9130.87
 10448.8
 12411.6
 13990.9
 16063.9
 18335.8
 20792.2
 23402.6
 25707.0
 27677.5
 29827.2
 31486.9
 32677.5
 33507.6
 33461.7
 33321.5
 32224.4
 30653.2
 29053.5
 27248.7
 25121.3
 22853.6
 20645.9
 18544.8
 16900.1
 15253.0
 13870.1
 12630.4
 11701.5
 11066.8
 10613.9
 10290.9
 10236.7
 10380.7
 10418.5
 11288.1
 11894.9
 12638.9
 13770.0
 15206.1
 16868.0
 19427.0
 22425.5
 25871.0
 30850.9
 36761.6
 44636.1
 53959.6
 65871.7
 80437.4
 98371.1
 119610.0
 144217.0
 173170.0
 203736.0
 238719.0
 273734.0
 310920.0
 346849.0
 381054.0
 410849.0
 436907.0
 456273.0
 466440.0
 471003.0
 465757.0
 453866.0
 433304.0
 407908.0
 376356.0
 343497.0
 307211.0
 271999.0
 236862.0
 205060.0
 174753.0
 148791.0
 125506.0
 105173.0
 88699.5
 74496.1
 63491.3
 54154.9
 46956.6
 41369.3
 36685.2
 32728.7
 29760.1
 27373.9
 25208.9
 23599.6
 21692.5
 20055.8
 18657.8
 17392.6
 16558.1
 15442.9
 14631.2
 14046.9
 13553.3
 13351.0
 12767.8
 12953.4
 12797.7
 13125.3
 13595.6
 13880.9
 14991.5
 15654.6
 16727.9
 18282.5
 19977.4
 21586.1
 24139.6
 26548.8
 29987.9
 32984.8
 36910.3
 40955.5
 45501.6
 50282.0
 55120.4
 59616.7
 64622.6
 69528.1
 72997.5
 76020.6
 77998.7
 78758.0
 78923.3
 78205.2
 75455.1
 72492.7
 68753.4
 63991.4
 58814.8
 53553.6
 48419.8
 43332.6
 38369.4
 33555.7
 29240.6
 25340.4
 22623.3
 19870.8
 17405.6
 15811.0
 14321.5
 13437.8
 12404.7
 12141.3
 11483.1
 11265.7
 11329.0
 11296.6
 11288.9
 11353.0
 11386.3
 11409.9
 11484.0
 11311.0
 11570.0
 11642.4
 11589.9
 11361.1
 11396.0
 11057.8
 10911.1
 10590.7
 10680.2
 10183.6
 9733.56
 9681.11
 9010.42
 8541.42
 8167.31
 7771.25
 7249.32
 6709.47
 6439.17
 5972.89
 5766.09
 5355.72
 5100.17
 4995.9
 4810.52
 4561.36
 4591.01
 4434.88
 4376.66
 4327.97
 4260.77
 4241.33
 4121.1
 4164.93
 3905.21
 3930.02
 3940.63
 3812.6
 3730.1
 3677.31
 3795.97
 3668.67
 3641.7
 3719.35
 3828.49
 3919.57
 4147.52
 4471.13
 4818.9
 5444.45
 6161.58
 7003.64
 8020.62
 9271.2
 10495.0
 12207.4
 13978.9
 15971.0
 18153.9
 19885.8
 22308.8
 24421.3
 26171.1
 27805.9
 29281.0
 30034.0
 30495.4
 30922.0
 30473.8
 29827.5
 28582.4
 27287.1
 25495.5
 23540.3
 21245.8
 19561.2
 17431.3
 15360.7
 13945.3
 12158.2
 10521.9
 9523.29
 8455.48
 7443.5
 6721.3
 6125.51
 5803.86
 5415.97
 5220.99
 4998.34
 4872.98
 4856.92
 4776.07
 4815.26
 4884.51
 5070.78
 5182.22
 5339.79
 5669.82
 6176.99
 6652.93
 7426.34
 8359.4
 9393.64
 10871.3
 12853.8
 15268.1
 18502.0
 21526.5
 26148.8
 31595.5
 37891.4
 45453.6
 53495.3
 62971.0
 72678.4
 84028.5
 95527.2
 107635.0
 119700.0
 131540.0
 141676.0
 150437.0
 157662.0
 163083.0
 165717.0
 165898.0
 163954.0
 160056.0
 153509.0
 144596.0
 134645.0
 124176.0
 112672.0
 101443.0
 90040.9
 79628.0
 68302.8
 58955.8
 50547.6
 42656.3
 36723.7
 31292.2
 26598.3
 22741.2
 20021.3
 17657.0
 15573.2
 14119.9
 12882.9
 11960.8
 11212.7
 10722.6
 10277.1
 9497.92
 9147.06
 8710.96
 8300.2
 7692.94
 7312.23
 6911.16
 6422.95
 6115.07
 5519.94
 5269.56
 5059.29
 4752.58
 4498.25
 4336.0
 4046.17
 3902.59
 3724.08
 3618.39
 3499.78
 3577.61
 3427.41
 3401.89
 3509.76
 3307.27
 3272.64
 3274.87
 3251.93
 3319.03
 3199.0
 3355.31
 3300.79
 3293.52
 3300.99
 3252.48
 3296.7
 3276.71
 3366.75
 3409.12
 3334.66
 3683.32
 3828.62
 3743.32
 4113.41
 4359.65
 4650.06
 5014.01
 5547.06
 6220.58
 6478.96
 7484.42
 8441.69
 9536.71
 10861.7
 12140.4
 13835.5
 15262.0
 16821.9
 18180.6
 19885.4
 21571.8
 23046.9
 24543.5
 25031.4
 25639.2
 26338.5
 26832.2
 26618.0
 26018.1
 25326.0
 24756.9
 23676.6
 22499.6
 21119.3
 19982.8
 18680.1
 17392.8
 16075.8
 14981.7
 13732.9
 12924.0
 11695.2
 10645.3
 10048.4
 9400.84
 8429.2
 7884.75
 7168.73
 6798.13
 6188.9
 5727.62
 5167.56
 5023.85
 4551.67
 4530.19
 4271.35
 4169.7
 4124.76
 4203.21
 4052.45
 4093.84
 4299.02
 4207.57
 4499.44
 4469.26
 4744.24
 4770.33
 5082.29
 5139.45
 5404.89
 5573.54
 5689.89
 5831.44
 5862.33
 5998.98
 5918.45
 6116.23
 6041.07
 5965.91
 5766.8
 5691.14
 5548.29
 5341.61
 5169.76
 4989.67
 4705.76
 4500.18
 4350.42
 4103.65
 3916.92
 3872.62
 3616.63
 3668.68
 3643.42
 3473.16
 3534.24
 3491.81
 3443.96
 3608.51
 3525.83
 3563.4
 3555.23
 3588.25
 3586.77
 3735.09
 3764.08
 3798.16
 3705.24
 3746.22
 3780.23
 3665.26
 3709.32
 3725.01
 3598.58
 3551.66
 3459.42
 3424.88
 3453.89
 3551.89
 3477.98
 3523.27
 3376.19
 3415.29
 3516.32
 3447.91
 3549.68
 3592.55
 3558.23
 3601.4
 3684.4
 3868.44
 4044.82
 3889.9
 4049.81
 4151.62
 4185.19
 4318.02
 4390.4
 4470.21
 4602.22
 4716.69
 4742.6
 4985.28
 4890.22
 4947.65
 5102.03
 5255.11
 5204.63
 5455.92
 5435.07
 5543.42
 5722.6
 5899.13
 5975.96
 6090.75
 6158.34
 6360.02
 6604.82
 6752.53
 6852.75
 6944.97
 7110.2
 7364.23
 7699.57
 7730.27
 8092.29
 8115.43
 8712.52
 8839.94
 9205.34
 9467.59
 9921.42
 10131.5
 10467.4
 10744.6
 11036.7
 11381.5
 11460.8
 12025.6
 12417.1
 12782.7
 13334.5
 13416.9
 14174.9
 14394.3
 14821.5
 15632.5
 15750.6
 16440.0
 17129.9
 17439.0
 18341.4
 19006.5
 19697.7
 20432.9
 21331.3
 22233.4
 23072.9
 24035.6
 24848.0
 26100.8
 27089.7
 28467.5
 30210.0
 31555.2
 33095.6
 35017.7
 36833.8
 39132.2
 42139.0
 43733.0
 47176.9
 50228.2
 53944.8
 58142.8
 62795.8
 67798.1
 72363.9
 78344.4
 85002.8
 91402.0
 98329.2
 106379.0
 114475.0
 122313.0
 132089.0
 140440.0
 149873.0
 158353.0
 167744.0
 177308.0
 185698.0
 194851.0
 202266.0
 208789.0
 216494.0
 222844.0
 227519.0
 231889.0
 234546.0
 236732.0
 238454.0
 238914.0
 238839.0
 237050.0
 234561.0
 231787.0
 229841.0
 226660.0
 224254.0
 221981.0
 219174.0
 217500.0
 216989.0
 216741.0
 218234.0
 220370.0
 223159.0
 225484.0
 230168.0
 234972.0
 240141.0
 243718.0
 247019.0
 249506.0
 250912.0
 249568.0
 247307.0
 242520.0
 236247.0
 228309.0
 217100.0
 206710.0
 192484.0
 179124.0
 164165.0
 149399.0
 134843.0
 120692.0
 107046.0
 93383.0
 81772.7
 71497.5
 61856.3
 52871.5
 45657.4
 39641.4
 33702.2
 29462.3
 26005.7
 22418.0
 19923.5
 17722.2
 15915.0
 14602.4
 13391.6
 12363.2
 11714.5
 11158.9
 10205.2
 9882.08
 9324.96
 8875.97
 8630.39
 8212.7
 7839.93
 7642.24
 7219.78
 6882.36
 6734.0
 6510.37
 6298.93
 5939.5
 5773.25
 5581.28
 5323.49
 5313.17
 5116.4
 4951.03
 4934.87
 4779.56
 4566.43
 4516.75
 4413.95
 4506.54
 4411.2
 4428.06
 4390.93
 4246.34
 4304.39
 4196.95
 4425.13
 4351.5
 4361.02
 4427.68
 4395.84
 4340.18
 4451.76
 4541.91
 4519.81
 4692.65
 4541.98
 4637.14
 4652.08
 4611.52
 4527.57
 4567.77
 4650.2
 4625.41
 4502.86
 4440.93
 4346.04
 4187.4
 4138.52
 3916.97
 3834.62
 3641.26
 3437.88
 3333.01
 3218.86
 3133.76
 3006.0
 2857.37
 2802.16
 2590.3
 2468.2
 2418.49
 2248.51
 2269.51
 2282.69
 2178.32
 2053.83
 2065.08
 1920.47
 1906.81
 1841.07
 1857.18
 1859.6
 1883.21
 1841.17
 1806.51
 1690.69
 1744.84
 1688.41
 1700.89
 1681.93
 1727.13
 1628.03
 1698.5
 1659.46
 1729.23
 1655.82
 1589.08
 1651.63
 1667.27
 1607.88
 1627.48
 1591.76
 1576.09
 1622.88
 1639.83
 1598.37
 1540.83
 1526.22
 1612.41
 1560.32
 1541.56
 1567.47
 1568.68
 1542.22
 1587.33
 1558.11
 1504.5
 1445.93
 1428.3
 1377.47
 1354.66
 1357.79
 1382.31
 1233.1
 1208.45
 1152.24
 1112.56
 1076.96
 1075.71
 994.669
 991.921
 952.642
 936.119
 880.432
 858.09
 863.02
 779.709
 748.128
 671.973
 704.917
 684.587
 660.849
 681.23
 708.963
 667.964
 603.441
 641.433
 630.013
 633.331
 607.446
 617.773
 638.238
 650.705
 566.241
 551.098
 620.965
 576.66
 598.365
 561.374
 566.602
 553.154
 605.396
 600.191
 615.737
 588.947
 573.613
 611.659
 618.726
 555.145
 594.588
 600.501
 623.048
 593.252
 640.465
 556.338
 575.961
 595.568
 594.436
 660.126
 566.732
 605.721
 565.565
 569.714
 561.515
 565.0
 574.74
 561.859
 585.145
 589.384
 547.237
 577.96
 579.815
 604.469
 584.295
 594.587
 589.367
 536.137
 634.48
 589.368
 702.218
 636.617
 619.26
 698.237
 667.576
 676.622
 654.219
 662.35
 695.47
 709.564
 678.015
 732.233
 761.055
 739.51
 760.214
 773.335
 776.685
 775.86
 797.031
 753.943
 784.783
 804.452
 762.053
 759.852
 795.148
 751.842
 810.3
 827.178
 776.72
 765.999
 861.098
 858.669
 871.837
 862.952
 838.126
 931.612
 921.417
 998.286
 981.029
 1015.79
 1024.03
 1086.93
 1089.07
 1155.77
 1182.33
 1226.72
 1285.15
 1368.49
 1427.86
 1524.68
 1534.77
 1693.21
 1761.23
 1770.58
 1973.59
 2104.04
 2237.55
 2338.6
 2530.1
 2651.24
 2781.29
 2953.2
 3134.49
 3215.16
 3348.69
 3684.34
 3772.29
 3968.19
 4089.67
 4290.47
 4319.27
 4463.41
 4703.06
 4694.28
 4817.19
 4809.54
 4846.18
 5002.78
 4898.82
 4797.63
 4900.46
 4884.79
 4738.56
 4711.95
 4763.67
 4600.56
 4749.55
 4647.28
 4778.76
 4851.19
 4802.66
 4839.3
 4778.0
 4822.41
 4903.3
 5078.25
 5181.36
 5192.69
 5273.27
 5539.37
 5564.3
 5544.54
 5555.6
 5419.83
 5504.09
 5629.1
 5373.57
 5569.23
 5352.83
 4988.46
 5048.1
 4978.49
 4793.66
 4648.9
 4611.88
 4352.77
 4182.49
 4034.52
 3997.73
 3858.83
 3638.01
 3590.29
 3532.99
 3372.99
 3267.11
 3235.54
 3213.64
 3235.43
 3114.28
 3137.04
 3247.99
 3142.98
 3169.59
 3177.6
 3203.03
 3185.79
 3121.38
 3095.33
 3025.44
 2983.99
 2941.21
 2966.23
 2807.43
 2693.16
 2634.85
 2514.73
 2445.72
 2298.46
 2198.29
 1983.3
 1848.36
 1760.32
 1649.1
 1517.59
 1364.85
 1372.87
 1268.53
 1150.37
 1077.63
 970.584
 941.903
 927.452
 843.217
 809.405
 816.462
 779.626
 775.079
 721.175
 725.114
 719.021
 680.073
 670.045
 647.013
 623.547
 651.281
 584.131
 587.68
 513.52
 514.609
 554.584
 488.86
 457.306
 441.801
 459.184
 381.982
 368.593
 333.867
 313.435
 305.204
 288.704
 240.396
 236.302
 214.674
 226.113
 204.42
 205.429
 185.015
 173.642
 194.266
 172.446
 157.256
 166.349
 151.899
 153.02
 153.119
 175.701
 155.067
 156.126
 136.705
 161.28
 130.341
 145.86
 156.203
 137.672
 136.642
 144.774
 125.311
 138.741
 152.106
 171.626
 166.481
 158.246
 156.223
 157.23
 152.053
 174.882
 166.659
 144.846
 158.317
 162.434
 167.423
 172.524
 171.543
 166.486
 185.056
 138.722
 168.449
 180.78
 184.976
 172.644
 168.575
 164.357
 161.255
 141.81
 140.564
 168.467
 165.481
 146.866
 167.394
 131.58
 141.752
 112.986
 119.282
 137.762
 129.548
 114.193
 97.6055
 113.071
 122.293
 129.417
 114.072
 117.216
 120.308
 119.131
 117.148
 93.5338
 96.5897
 119.283
 108.938
 123.292
 109.868
 105.78
 118.085
 118.157
 139.776
 124.37
 156.208
 132.587
 145.946
 180.896
 164.507
 152.066
 158.295
 176.648
 201.53
 200.431
 202.46
 234.207
 230.062
 247.656
 243.62
 240.485
 262.053
 256.754
 245.471
 299.03
 274.348
 258.876
 257.796
 273.093
 268.203
 282.527
 266.284
 255.863
 264.155
 281.654
 246.761
 250.889
 249.822
 254.939
 275.505
 245.622
 241.518
 222.008
 224.119
 227.245
 215.839
 219.018
 253.939
 228.14
 216.087
 244.704
 240.564
 275.695
 254.926
 268.346
 278.679
 295.937
 261.272
